#instrument=ARROW,
#ra=20.6053,
#dec=40.5503,
#alt=43.4872,
#az=76.05,
#tracking=true,
#startTime=1571752690,
#startTimeUTC=2019-10-22T13:58:10.770Z,
#user=atc5,
#fullScan=true,
#completeTime=1571752780,
#completeTimeUTC=2019-10-22T13:59:40.742Z,
frequency, intensity
-800000,2.039
-795000,1.992
-790000,1.98
-785000,1.965
-780000,1.953
-775000,1.963
-770000,1.973
-765000,1.973
-760000,1.973
-755000,1.978
-750000,1.96
-745000,1.943
-740000,1.941
-735000,1.934
-730000,1.956
-725000,1.958
-720000,1.951
-715000,1.963
-710000,1.956
-705000,1.953
-700000,1.96
-695000,1.96
-690000,1.96
-685000,1.982
-680000,1.982
-675000,1.982
-670000,1.975
-665000,1.978
-660000,1.99
-655000,2.002
-650000,2
-645000,1.992
-640000,2.002
-635000,1.987
-630000,1.992
-625000,2.017
-620000,2.012
-615000,1.992
-610000,2.007
-605000,1.99
-600000,2.002
-595000,2.007
-590000,2.017
-585000,2.021
-580000,2.009
-575000,2.039
-570000,2.026
-565000,2.009
-560000,2.021
-555000,2.029
-550000,2.031
-545000,2.041
-540000,2.019
-535000,2.009
-530000,2.019
-525000,2.029
-520000,2.021
-515000,2.024
-510000,2.031
-505000,2.041
-500000,2.051
-495000,2.046
-490000,2.051
-485000,2.07
-480000,2.09
-475000,2.09
-470000,2.08
-465000,2.087
-460000,2.08
-455000,2.09
-450000,2.097
-445000,2.09
-440000,2.109
-435000,2.087
-430000,2.09
-425000,2.109
-420000,2.109
-415000,2.09
-410000,2.097
-405000,2.102
-400000,2.107
-395000,2.104
-390000,2.097
-385000,2.097
-380000,2.097
-375000,2.09
-370000,2.107
-365000,2.104
-360000,2.097
-355000,2.097
-350000,2.107
-345000,2.087
-340000,2.09
-335000,2.117
-330000,2.109
-325000,2.126
-320000,2.136
-315000,2.139
-310000,2.136
-305000,2.136
-300000,2.136
-295000,2.156
-290000,2.158
-285000,2.148
-280000,2.146
-275000,2.148
-270000,2.139
-265000,2.146
-260000,2.17
-255000,2.168
-250000,2.168
-245000,2.166
-240000,2.156
-235000,2.175
-230000,2.178
-225000,2.195
-220000,2.178
-215000,2.188
-210000,2.178
-205000,2.188
-200000,2.207
-195000,2.192
-190000,2.207
-185000,2.175
-180000,2.166
-175000,2.185
-170000,2.188
-165000,2.188
-160000,2.18
-155000,2.185
-150000,2.202
-145000,2.205
-140000,2.207
-135000,2.224
-130000,2.217
-125000,2.236
-120000,2.251
-115000,2.239
-110000,2.258
-105000,2.246
-100000,2.227
-95000,2.227
-90000,2.236
-85000,2.241
-80000,2.249
-75000,2.278
-70000,2.305
-65000,2.334
-60000,2.373
-55000,2.417
-50000,2.444
-45000,2.49
-40000,2.51
-35000,2.571
-30000,2.625
-25000,2.683
-20000,2.754
-15000,2.82
-10000,2.871
-5000,2.917
0,2.952
5000,2.959
10000,2.998
15000,3.057
20000,3.083
25000,3.113
30000,3.096
35000,3.12
40000,3.113
45000,3.108
50000,3.13
55000,3.135
60000,3.115
65000,3.118
70000,3.066
75000,3.035
80000,2.998
85000,2.947
90000,2.905
95000,2.839
100000,2.832
105000,2.783
110000,2.761
115000,2.734
120000,2.686
125000,2.654
130000,2.634
135000,2.607
140000,2.578
145000,2.529
150000,2.527
155000,2.5
160000,2.49
165000,2.463
170000,2.471
175000,2.48
180000,2.488
185000,2.49
190000,2.5
195000,2.495
200000,2.473
205000,2.5
210000,2.5
215000,2.49
220000,2.49
225000,2.48
230000,2.471
235000,2.471
240000,2.451
245000,2.432
250000,2.41
255000,2.422
260000,2.432
265000,2.451
270000,2.458
275000,2.468
280000,2.468
285000,2.476
290000,2.454
295000,2.449
300000,2.449
305000,2.461
310000,2.461
315000,2.471
320000,2.48
325000,2.461
330000,2.488
335000,2.49
340000,2.488
345000,2.505
350000,2.51
355000,2.578
360000,2.559
365000,2.566
370000,2.563
375000,2.578
380000,2.588
385000,2.595
390000,2.578
395000,2.578
400000,2.568
405000,2.559
410000,2.549
415000,2.554
420000,2.549
425000,2.559
430000,2.563
435000,2.561
440000,2.561
445000,2.576
450000,2.566
455000,2.559
460000,2.556
465000,2.551
470000,2.529
475000,2.524
480000,2.49
485000,2.471
490000,2.476
495000,2.488
500000,2.476
505000,2.468
510000,2.461
515000,2.456
520000,2.466
525000,2.468
530000,2.454
535000,2.461
540000,2.468
545000,2.483
550000,2.48
555000,2.48
560000,2.461
565000,2.444
570000,2.432
575000,2.419
580000,2.402
585000,2.419
590000,2.441
595000,2.441
600000,2.422
605000,2.412
610000,2.412
615000,2.412
620000,2.422
625000,2.412
630000,2.41
635000,2.412
640000,2.441
645000,2.439
650000,2.427
655000,2.429
660000,2.422
665000,2.456
670000,2.422
675000,2.422
680000,2.429
685000,2.419
690000,2.412
695000,2.422
700000,2.432
705000,2.441
710000,2.437
715000,2.451
720000,2.451
725000,2.466
730000,2.454
735000,2.456
740000,2.441
745000,2.439
750000,2.449
755000,2.466
760000,2.449
765000,2.432
770000,2.429
775000,2.439
780000,2.461
785000,2.432
790000,2.434
795000,2.422
800000,2.419
805000,2.449
810000,2.458
815000,2.461
820000,2.451
825000,2.446
830000,2.444
835000,2.449
840000,2.441
845000,2.463
850000,2.461
855000,2.471
860000,2.48
865000,2.5
870000,2.51
875000,2.498
880000,2.498
885000,2.498
890000,2.51
895000,2.515
900000,2.549
905000,2.578
910000,2.59
915000,2.588
920000,2.588
925000,2.576
930000,2.549
935000,2.563
940000,2.568
945000,2.549
950000,2.529
955000,2.529
960000,2.556
965000,2.549
970000,2.559
975000,2.559
980000,2.544
985000,2.556
990000,2.534
995000,2.539
1000000,2.556
1005000,2.549
1010000,2.576
1015000,2.566
1020000,2.556
1025000,2.537
1030000,2.566
1035000,2.556
1040000,2.539
1045000,2.529
1050000,2.52
1055000,2.559
1060000,2.556
1065000,2.559
1070000,2.539
1075000,2.534
1080000,2.517
1085000,2.532
1090000,2.549
1095000,2.549
1100000,2.554
1105000,2.549
1110000,2.578
1115000,2.539
1120000,2.546
1125000,2.559
1130000,2.568
1135000,2.559
1140000,2.551
1145000,2.559
1150000,2.554
1155000,2.539
1160000,2.559
1165000,2.568
1170000,2.559
1175000,2.559
1180000,2.571
1185000,2.588
1190000,2.578
1195000,2.578
1200000,2.583