#instrument=ARROW,
#ra=17.9856,
#dec=66.585,
#alt=42.7975,
#az=327.8,
#tracking=true,
#startTime=1636061975,
#startTimeUTC=2021-11-04T21:39:35.374Z,
#user=cs9527,
#fullScan=true,
#completeTime=1636062075,
#completeTimeUTC=2021-11-04T21:41:15.615Z,
frequency, intensity
-800000,1.895
-795000,1.833
-790000,1.765
-785000,1.777
-780000,1.787
-775000,1.775
-770000,1.804
-765000,1.77
-760000,1.792
-755000,1.826
-750000,1.838
-745000,1.848
-740000,1.851
-735000,1.846
-730000,1.846
-725000,1.812
-720000,1.758
-715000,1.748
-710000,1.768
-705000,1.812
-700000,1.843
-695000,1.836
-690000,1.807
-685000,1.816
-680000,1.838
-675000,1.875
-670000,1.882
-665000,1.892
-660000,1.887
-655000,1.902
-650000,1.912
-645000,1.904
-640000,1.914
-635000,1.914
-630000,1.912
-625000,1.914
-620000,1.875
-615000,1.89
-610000,1.895
-605000,1.904
-600000,1.921
-595000,1.953
-590000,1.953
-585000,1.96
-580000,1.973
-575000,1.973
-570000,1.965
-565000,1.934
-560000,1.921
-555000,1.948
-550000,1.953
-545000,1.97
-540000,1.978
-535000,1.97
-530000,1.982
-525000,1.982
-520000,1.973
-515000,1.96
-510000,1.943
-505000,1.941
-500000,1.951
-495000,1.936
-490000,1.982
-485000,1.97
-480000,1.973
-475000,1.99
-470000,1.951
-465000,1.943
-460000,1.96
-455000,1.963
-450000,1.96
-445000,1.992
-440000,1.992
-435000,2
-430000,2.004
-425000,2.012
-420000,2.002
-415000,2.012
-410000,2.031
-405000,2.019
-400000,2.002
-395000,2.019
-390000,2.019
-385000,2.039
-380000,2.012
-375000,1.951
-370000,1.914
-365000,1.934
-360000,1.943
-355000,1.953
-350000,1.956
-345000,1.96
-340000,1.958
-335000,1.96
-330000,1.963
-325000,1.953
-320000,1.943
-315000,1.963
-310000,1.99
-305000,2
-300000,2.021
-295000,2.041
-290000,2.039
-285000,2.031
-280000,2.039
-275000,2.068
-270000,2.061
-265000,2.029
-260000,2.029
-255000,2.046
-250000,2.041
-245000,2.07
-240000,2.07
-235000,2.078
-230000,2.07
-225000,2.061
-220000,2.07
-215000,2.08
-210000,2.08
-205000,2.085
-200000,2.09
-195000,2.08
-190000,2.097
-185000,2.1
-180000,2.097
-175000,2.117
-170000,2.109
-165000,2.119
-160000,2.119
-155000,2.104
-150000,2.109
-145000,2.109
-140000,2.117
-135000,2.1
-130000,2.087
-125000,2.095
-120000,2.07
-115000,2.08
-110000,2.1
-105000,2.109
-100000,2.117
-95000,2.117
-90000,2.139
-85000,2.136
-80000,2.129
-75000,2.148
-70000,2.158
-65000,2.158
-60000,2.175
-55000,2.178
-50000,2.197
-45000,2.178
-40000,2.178
-35000,2.207
-30000,2.217
-25000,2.231
-20000,2.253
-15000,2.256
-10000,2.258
-5000,2.266
0,2.285
5000,2.312
10000,2.317
15000,2.312
20000,2.334
25000,2.339
30000,2.339
35000,2.354
40000,2.354
45000,2.344
50000,2.327
55000,2.332
60000,2.324
65000,2.292
70000,2.285
75000,2.236
80000,2.234
85000,2.197
90000,2.185
95000,2.185
100000,2.207
105000,2.195
110000,2.188
115000,2.205
120000,2.205
125000,2.207
130000,2.207
135000,2.207
140000,2.188
145000,2.188
150000,2.158
155000,2.146
160000,2.148
165000,2.146
170000,2.166
175000,2.139
180000,2.163
185000,2.166
190000,2.153
195000,2.166
200000,2.153
205000,2.168
210000,2.163
215000,2.163
220000,2.178
225000,2.195
230000,2.168
235000,2.168
240000,2.097
245000,2.058
250000,2.068
255000,2.107
260000,2.119
265000,2.146
270000,2.156
275000,2.148
280000,2.166
285000,2.175
290000,2.18
295000,2.195
300000,2.175
305000,2.178
310000,2.188
315000,2.168
320000,2.183
325000,2.158
330000,2.122
335000,2.139
340000,2.139
345000,2.146
350000,2.217
355000,2.246
360000,2.188
365000,2.188
370000,2.168
375000,2.166
380000,2.175
385000,2.158
390000,2.18
395000,2.197
400000,2.214
405000,2.197
410000,2.207
415000,2.209
420000,2.2
425000,2.202
430000,2.197
435000,2.205
440000,2.217
445000,2.214
450000,2.214
455000,2.217
460000,2.168
465000,2.166
470000,2.188
475000,2.168
480000,2.178
485000,2.185
490000,2.195
495000,2.202
500000,2.227
505000,2.197
510000,2.207
515000,2.188
520000,2.178
525000,2.183
530000,2.188
535000,2.207
540000,2.195
545000,2.166
550000,2.168
555000,2.212
560000,2.224
565000,2.234
570000,2.229
575000,2.227
580000,2.227
585000,2.236
590000,2.227
595000,2.253
600000,2.246
605000,2.234
610000,2.214
615000,2.188
620000,2.188
625000,2.178
630000,2.175
635000,2.207
640000,2.224
645000,2.253
650000,2.246
655000,2.273
660000,2.268
665000,2.285
670000,2.285
675000,2.275
680000,2.288
685000,2.295
690000,2.285
695000,2.285
700000,2.292
705000,2.285
710000,2.278
715000,2.285
720000,2.295
725000,2.312
730000,2.312
735000,2.275
740000,2.234
745000,2.236
750000,2.227
755000,2.253
760000,2.285
765000,2.28
770000,2.263
775000,2.197
780000,2.236
785000,2.256
790000,2.253
795000,2.241
800000,2.197
805000,2.185
810000,2.166
815000,2.156
820000,2.158
825000,2.188
830000,2.188
835000,2.207
840000,2.207
845000,2.207
850000,2.207
855000,2.219
860000,2.227
865000,2.249
870000,2.273
875000,2.275
880000,2.285
885000,2.305
890000,2.324
895000,2.314
900000,2.305
905000,2.305
910000,2.292
915000,2.305
920000,2.324
925000,2.351
930000,2.334
935000,2.322
940000,2.263
945000,2.253
950000,2.246
955000,2.266
960000,2.256
965000,2.275
970000,2.3
975000,2.341
980000,2.339
985000,2.344
990000,2.344
995000,2.351
1000000,2.341
1005000,2.354
1010000,2.341
1015000,2.322
1020000,2.302
1025000,2.261
1030000,2.244
1035000,2.219
1040000,2.217
1045000,2.205
1050000,2.209
1055000,2.197
1060000,2.207
1065000,2.207
1070000,2.197
1075000,2.236
1080000,2.236
1085000,2.236
1090000,2.244
1095000,2.266
1100000,2.283
1105000,2.285
1110000,2.283
1115000,2.275
1120000,2.314
1125000,2.334
1130000,2.302
1135000,2.302
1140000,2.29
1145000,2.29
1150000,2.266
1155000,2.253
1160000,2.236
1165000,2.234
1170000,2.256
1175000,2.246
1180000,2.266
1185000,2.283
1190000,2.285
1195000,2.266
1200000,2.288