#instrument=ARROW,
#ra=12.8628,
#dec=27.1153,
#alt=57.8997,
#az=130.417,
#tracking=true,
#startTime=1571734678,
#startTimeUTC=2019-10-22T08:57:58.381Z,
#user=atc5,
#fullScan=true,
#completeTime=1571734768,
#completeTimeUTC=2019-10-22T08:59:28.337Z,
frequency, intensity
-800000,2.048
-795000,2.012
-790000,1.982
-785000,1.98
-780000,1.98
-775000,1.992
-770000,1.973
-765000,1.973
-760000,1.99
-755000,1.997
-750000,2.004
-745000,2.004
-740000,2.012
-735000,2.002
-730000,2.002
-725000,2.012
-720000,2.002
-715000,2.009
-710000,1.982
-705000,1.973
-700000,2.002
-695000,1.995
-690000,2.012
-685000,2.012
-680000,2.017
-675000,2.002
-670000,2.029
-665000,2.019
-660000,2.029
-655000,2.031
-650000,2.012
-645000,2.039
-640000,2.039
-635000,2.039
-630000,2.041
-625000,2.048
-620000,2.053
-615000,2.051
-610000,2.051
-605000,2.046
-600000,2.07
-595000,2.048
-590000,2.024
-585000,2.012
-580000,2.029
-575000,2.019
-570000,2.029
-565000,2.051
-560000,2.053
-555000,2.061
-550000,2.061
-545000,2.058
-540000,2.058
-535000,2.073
-530000,2.07
-525000,2.07
-520000,2.075
-515000,2.09
-510000,2.097
-505000,2.1
-500000,2.09
-495000,2.097
-490000,2.107
-485000,2.08
-480000,2.09
-475000,2.087
-470000,2.1
-465000,2.119
-460000,2.109
-455000,2.1
-450000,2.107
-445000,2.1
-440000,2.09
-435000,2.1
-430000,2.109
-425000,2.097
-420000,2.126
-415000,2.117
-410000,2.104
-405000,2.107
-400000,2.1
-395000,2.107
-390000,2.112
-385000,2.1
-380000,2.109
-375000,2.139
-370000,2.158
-365000,2.158
-360000,2.148
-355000,2.148
-350000,2.158
-345000,2.166
-340000,2.161
-335000,2.151
-330000,2.17
-325000,2.166
-320000,2.158
-315000,2.153
-310000,2.156
-305000,2.166
-300000,2.168
-295000,2.168
-290000,2.158
-285000,2.178
-280000,2.175
-275000,2.178
-270000,2.197
-265000,2.188
-260000,2.185
-255000,2.173
-250000,2.178
-245000,2.168
-240000,2.188
-235000,2.178
-230000,2.188
-225000,2.195
-220000,2.195
-215000,2.185
-210000,2.197
-205000,2.188
-200000,2.188
-195000,2.205
-190000,2.195
-185000,2.197
-180000,2.207
-175000,2.197
-170000,2.19
-165000,2.185
-160000,2.188
-155000,2.18
-150000,2.197
-145000,2.195
-140000,2.212
-135000,2.2
-130000,2.185
-125000,2.197
-120000,2.214
-115000,2.227
-110000,2.229
-105000,2.239
-100000,2.227
-95000,2.234
-90000,2.214
-85000,2.207
-80000,2.205
-75000,2.207
-70000,2.222
-65000,2.236
-60000,2.234
-55000,2.219
-50000,2.227
-45000,2.217
-40000,2.227
-35000,2.236
-30000,2.217
-25000,2.222
-20000,2.227
-15000,2.249
-10000,2.253
-5000,2.256
0,2.266
5000,2.256
10000,2.275
15000,2.285
20000,2.292
25000,2.292
30000,2.305
35000,2.3
40000,2.285
45000,2.295
50000,2.302
55000,2.292
60000,2.275
65000,2.273
70000,2.266
75000,2.283
80000,2.285
85000,2.31
90000,2.314
95000,2.324
100000,2.317
105000,2.324
110000,2.322
115000,2.344
120000,2.334
125000,2.314
130000,2.314
135000,2.302
140000,2.305
145000,2.3
150000,2.292
155000,2.305
160000,2.305
165000,2.295
170000,2.324
175000,2.305
180000,2.285
185000,2.305
190000,2.305
195000,2.295
200000,2.295
205000,2.305
210000,2.324
215000,2.341
220000,2.324
225000,2.31
230000,2.324
235000,2.334
240000,2.307
245000,2.292
250000,2.285
255000,2.305
260000,2.271
265000,2.273
270000,2.297
275000,2.305
280000,2.297
285000,2.295
290000,2.297
295000,2.285
300000,2.302
305000,2.295
310000,2.314
315000,2.314
320000,2.314
325000,2.332
330000,2.334
335000,2.354
340000,2.361
345000,2.361
350000,2.38
355000,2.407
360000,2.393
365000,2.397
370000,2.378
375000,2.363
380000,2.344
385000,2.351
390000,2.354
395000,2.344
400000,2.341
405000,2.354
410000,2.354
415000,2.349
420000,2.334
425000,2.317
430000,2.314
435000,2.295
440000,2.312
445000,2.307
450000,2.312
455000,2.327
460000,2.314
465000,2.324
470000,2.327
475000,2.334
480000,2.334
485000,2.314
490000,2.324
495000,2.305
500000,2.314
505000,2.332
510000,2.351
515000,2.344
520000,2.344
525000,2.346
530000,2.361
535000,2.341
540000,2.336
545000,2.351
550000,2.354
555000,2.332
560000,2.344
565000,2.339
570000,2.344
575000,2.336
580000,2.341
585000,2.354
590000,2.351
595000,2.344
600000,2.354
605000,2.344
610000,2.341
615000,2.358
620000,2.351
625000,2.363
630000,2.354
635000,2.363
640000,2.363
645000,2.371
650000,2.363
655000,2.383
660000,2.356
665000,2.383
670000,2.393
675000,2.395
680000,2.38
685000,2.383
690000,2.402
695000,2.402
700000,2.395
705000,2.393
710000,2.38
715000,2.383
720000,2.388
725000,2.393
730000,2.419
735000,2.412
740000,2.402
745000,2.397
750000,2.402
755000,2.4
760000,2.412
765000,2.405
770000,2.397
775000,2.402
780000,2.385
785000,2.402
790000,2.402
795000,2.41
800000,2.427
805000,2.422
810000,2.432
815000,2.441
820000,2.429
825000,2.415
830000,2.419
835000,2.422
840000,2.419
845000,2.422
850000,2.412
855000,2.407
860000,2.38
865000,2.419
870000,2.429
875000,2.422
880000,2.427
885000,2.429
890000,2.422
895000,2.449
900000,2.471
905000,2.49
910000,2.495
915000,2.507
920000,2.498
925000,2.48
930000,2.473
935000,2.468
940000,2.473
945000,2.471
950000,2.49
955000,2.49
960000,2.49
965000,2.5
970000,2.507
975000,2.529
980000,2.517
985000,2.507
990000,2.483
995000,2.5
1000000,2.5
1005000,2.49
1010000,2.502
1015000,2.505
1020000,2.522
1025000,2.539
1030000,2.529
1035000,2.52
1040000,2.542
1045000,2.539
1050000,2.5
1055000,2.498
1060000,2.5
1065000,2.485
1070000,2.48
1075000,2.48
1080000,2.49
1085000,2.48
1090000,2.48
1095000,2.5
1100000,2.51
1105000,2.502
1110000,2.517
1115000,2.52
1120000,2.51
1125000,2.517
1130000,2.515
1135000,2.529
1140000,2.517
1145000,2.527
1150000,2.527
1155000,2.539
1160000,2.529
1165000,2.539
1170000,2.529
1175000,2.529
1180000,2.529
1185000,2.537
1190000,2.527
1195000,2.559
1200000,2.578