#instrument=ARROW,
#ra=12.8625,
#dec=27.1153,
#alt=57.2583,
#az=128.517,
#tracking=true,
#startTime=1571734354,
#startTimeUTC=2019-10-22T08:52:34.829Z,
#user=atc5,
#fullScan=true,
#completeTime=1571734444,
#completeTimeUTC=2019-10-22T08:54:04.788Z,
frequency, intensity
-800000,2.061
-795000,2.031
-790000,2.021
-785000,2.009
-780000,1.992
-775000,1.99
-770000,1.982
-765000,1.982
-760000,1.982
-755000,1.973
-750000,1.973
-745000,1.997
-740000,2.009
-735000,1.992
-730000,1.982
-725000,1.995
-720000,2.019
-715000,2.012
-710000,2.021
-705000,2.031
-700000,2.012
-695000,2.009
-690000,2.012
-685000,2.002
-680000,2.002
-675000,2.021
-670000,2.021
-665000,2.021
-660000,2.039
-655000,2.019
-650000,2.029
-645000,2.029
-640000,2.051
-635000,2.041
-630000,2.051
-625000,2.051
-620000,2.039
-615000,2.031
-610000,2.012
-605000,2.031
-600000,2.051
-595000,2.048
-590000,2.046
-585000,2.053
-580000,2.058
-575000,2.058
-570000,2.048
-565000,2.051
-560000,2.048
-555000,2.058
-550000,2.061
-545000,2.07
-540000,2.08
-535000,2.08
-530000,2.08
-525000,2.08
-520000,2.08
-515000,2.07
-510000,2.07
-505000,2.058
-500000,2.07
-495000,2.087
-490000,2.1
-485000,2.09
-480000,2.087
-475000,2.08
-470000,2.07
-465000,2.09
-460000,2.1
-455000,2.09
-450000,2.107
-445000,2.107
-440000,2.1
-435000,2.097
-430000,2.1
-425000,2.085
-420000,2.1
-415000,2.109
-410000,2.09
-405000,2.08
-400000,2.08
-395000,2.109
-390000,2.109
-385000,2.109
-380000,2.1
-375000,2.097
-370000,2.129
-365000,2.129
-360000,2.136
-355000,2.148
-350000,2.141
-345000,2.136
-340000,2.139
-335000,2.158
-330000,2.166
-325000,2.188
-320000,2.185
-315000,2.178
-310000,2.168
-305000,2.178
-300000,2.178
-295000,2.178
-290000,2.18
-285000,2.156
-280000,2.153
-275000,2.148
-270000,2.156
-265000,2.178
-260000,2.168
-255000,2.175
-250000,2.178
-245000,2.161
-240000,2.168
-235000,2.168
-230000,2.168
-225000,2.183
-220000,2.185
-215000,2.188
-210000,2.195
-205000,2.217
-200000,2.207
-195000,2.188
-190000,2.178
-185000,2.178
-180000,2.188
-175000,2.188
-170000,2.185
-165000,2.175
-160000,2.173
-155000,2.175
-150000,2.188
-145000,2.168
-140000,2.195
-135000,2.197
-130000,2.205
-125000,2.197
-120000,2.207
-115000,2.207
-110000,2.197
-105000,2.197
-100000,2.183
-95000,2.195
-90000,2.197
-85000,2.205
-80000,2.217
-75000,2.231
-70000,2.246
-65000,2.253
-60000,2.239
-55000,2.236
-50000,2.207
-45000,2.214
-40000,2.214
-35000,2.227
-30000,2.246
-25000,2.236
-20000,2.236
-15000,2.239
-10000,2.244
-5000,2.256
0,2.266
5000,2.275
10000,2.285
15000,2.285
20000,2.302
25000,2.295
30000,2.288
35000,2.31
40000,2.297
45000,2.295
50000,2.275
55000,2.283
60000,2.292
65000,2.297
70000,2.285
75000,2.295
80000,2.292
85000,2.295
90000,2.288
95000,2.29
100000,2.271
105000,2.285
110000,2.3
115000,2.292
120000,2.292
125000,2.285
130000,2.3
135000,2.295
140000,2.314
145000,2.3
150000,2.305
155000,2.31
160000,2.322
165000,2.314
170000,2.312
175000,2.292
180000,2.312
185000,2.305
190000,2.295
195000,2.305
200000,2.295
205000,2.305
210000,2.295
215000,2.285
220000,2.285
225000,2.295
230000,2.305
235000,2.332
240000,2.324
245000,2.305
250000,2.31
255000,2.305
260000,2.305
265000,2.305
270000,2.332
275000,2.349
280000,2.334
285000,2.334
290000,2.344
295000,2.344
300000,2.31
305000,2.305
310000,2.3
315000,2.319
320000,2.324
325000,2.314
330000,2.327
335000,2.332
340000,2.314
345000,2.307
350000,2.346
355000,2.429
360000,2.402
365000,2.378
370000,2.373
375000,2.354
380000,2.341
385000,2.324
390000,2.332
395000,2.319
400000,2.314
405000,2.324
410000,2.324
415000,2.305
420000,2.312
425000,2.324
430000,2.31
435000,2.324
440000,2.339
445000,2.341
450000,2.341
455000,2.336
460000,2.351
465000,2.354
470000,2.351
475000,2.344
480000,2.344
485000,2.327
490000,2.322
495000,2.319
500000,2.334
505000,2.354
510000,2.351
515000,2.354
520000,2.324
525000,2.351
530000,2.354
535000,2.363
540000,2.351
545000,2.354
550000,2.354
555000,2.358
560000,2.363
565000,2.363
570000,2.366
575000,2.373
580000,2.393
585000,2.378
590000,2.363
595000,2.368
600000,2.363
605000,2.373
610000,2.373
615000,2.363
620000,2.371
625000,2.378
630000,2.393
635000,2.393
640000,2.39
645000,2.375
650000,2.363
655000,2.366
660000,2.354
665000,2.363
670000,2.373
675000,2.366
680000,2.373
685000,2.38
690000,2.402
695000,2.417
700000,2.422
705000,2.419
710000,2.393
715000,2.4
720000,2.402
725000,2.407
730000,2.39
735000,2.393
740000,2.383
745000,2.39
750000,2.402
755000,2.39
760000,2.402
765000,2.422
770000,2.441
775000,2.405
780000,2.419
785000,2.427
790000,2.41
795000,2.402
800000,2.419
805000,2.41
810000,2.441
815000,2.422
820000,2.412
825000,2.41
830000,2.402
835000,2.393
840000,2.432
845000,2.444
850000,2.449
855000,2.451
860000,2.446
865000,2.432
870000,2.439
875000,2.437
880000,2.444
885000,2.461
890000,2.483
895000,2.49
900000,2.493
905000,2.49
910000,2.488
915000,2.5
920000,2.478
925000,2.471
930000,2.498
935000,2.517
940000,2.51
945000,2.52
950000,2.529
955000,2.529
960000,2.51
965000,2.529
970000,2.544
975000,2.529
980000,2.517
985000,2.52
990000,2.498
995000,2.471
1000000,2.461
1005000,2.461
1010000,2.471
1015000,2.471
1020000,2.49
1025000,2.5
1030000,2.517
1035000,2.52
1040000,2.495
1045000,2.5
1050000,2.5
1055000,2.52
1060000,2.498
1065000,2.5
1070000,2.559
1075000,2.556
1080000,2.549
1085000,2.549
1090000,2.549
1095000,2.515
1100000,2.5
1105000,2.52
1110000,2.51
1115000,2.539
1120000,2.517
1125000,2.529
1130000,2.517
1135000,2.537
1140000,2.549
1145000,2.549
1150000,2.556
1155000,2.566
1160000,2.556
1165000,2.561
1170000,2.559
1175000,2.546
1180000,2.549
1185000,2.539
1190000,2.546
1195000,2.539
1200000,2.529