#instrument=ARROW,
#ra=19.7217,
#dec=23.8306,
#alt=42.0731,
#az=254.233,
#tracking=true,
#startTime=1636056478,
#startTimeUTC=2021-11-04T20:07:58.118Z,
#user=cs9527,
#fullScan=true,
#completeTime=1636056578,
#completeTimeUTC=2021-11-04T20:09:38.280Z,
frequency, intensity
-800000,1.938
-795000,1.914
-790000,1.914
-785000,1.924
-780000,1.934
-775000,1.921
-770000,1.914
-765000,1.931
-760000,1.914
-755000,1.914
-750000,1.941
-745000,1.914
-740000,1.895
-735000,1.875
-730000,1.892
-725000,1.895
-720000,1.895
-715000,1.895
-710000,1.902
-705000,1.909
-700000,1.885
-695000,1.873
-690000,1.875
-685000,1.885
-680000,1.885
-675000,1.907
-670000,1.902
-665000,1.909
-660000,1.914
-655000,1.934
-650000,1.941
-645000,1.938
-640000,1.956
-635000,1.953
-630000,1.97
-625000,1.963
-620000,1.943
-615000,1.934
-610000,1.924
-605000,1.953
-600000,1.941
-595000,1.934
-590000,1.951
-585000,1.958
-580000,1.97
-575000,1.973
-570000,1.985
-565000,1.982
-560000,1.973
-555000,1.973
-550000,1.992
-545000,1.99
-540000,2.002
-535000,1.997
-530000,1.982
-525000,2.002
-520000,1.99
-515000,1.982
-510000,1.982
-505000,2.002
-500000,1.982
-495000,2
-490000,1.992
-485000,1.99
-480000,1.992
-475000,1.992
-470000,2.002
-465000,2.021
-460000,2.019
-455000,2.012
-450000,2.012
-445000,2.012
-440000,2.012
-435000,1.992
-430000,1.982
-425000,1.992
-420000,1.99
-415000,2.009
-410000,2.029
-405000,2.002
-400000,2
-395000,2
-390000,1.982
-385000,1.97
-380000,1.963
-375000,1.975
-370000,1.98
-365000,1.992
-360000,2.021
-355000,2.029
-350000,2.021
-345000,2.019
-340000,2.034
-335000,2.048
-330000,2.07
-325000,2.068
-320000,2.07
-315000,2.083
-310000,2.08
-305000,2.09
-300000,2.061
-295000,2.09
-290000,2.061
-285000,2.061
-280000,2.07
-275000,2.058
-270000,2.058
-265000,2.061
-260000,2.08
-255000,2.087
-250000,2.09
-245000,2.09
-240000,2.107
-235000,2.126
-230000,2.129
-225000,2.134
-220000,2.126
-215000,2.129
-210000,2.129
-205000,2.144
-200000,2.117
-195000,2.134
-190000,2.146
-185000,2.146
-180000,2.158
-175000,2.188
-170000,2.188
-165000,2.18
-160000,2.188
-155000,2.17
-150000,2.158
-145000,2.158
-140000,2.156
-135000,2.188
-130000,2.207
-125000,2.212
-120000,2.224
-115000,2.195
-110000,2.197
-105000,2.197
-100000,2.197
-95000,2.227
-90000,2.253
-85000,2.283
-80000,2.305
-75000,2.332
-70000,2.314
-65000,2.297
-60000,2.275
-55000,2.246
-50000,2.224
-45000,2.205
-40000,2.188
-35000,2.185
-30000,2.188
-25000,2.148
-20000,2.153
-15000,2.129
-10000,2.109
-5000,2.092
0,2.092
5000,2.09
10000,2.08
15000,2.078
20000,2.085
25000,2.068
30000,2.109
35000,2.148
40000,2.158
45000,2.185
50000,2.18
55000,2.205
60000,2.205
65000,2.217
70000,2.207
75000,2.195
80000,2.205
85000,2.207
90000,2.207
95000,2.19
100000,2.197
105000,2.175
110000,2.158
115000,2.148
120000,2.175
125000,2.178
130000,2.197
135000,2.197
140000,2.217
145000,2.227
150000,2.209
155000,2.207
160000,2.195
165000,2.175
170000,2.158
175000,2.168
180000,2.168
185000,2.178
190000,2.18
195000,2.188
200000,2.188
205000,2.2
210000,2.185
215000,2.188
220000,2.185
225000,2.188
230000,2.197
235000,2.214
240000,2.217
245000,2.205
250000,2.207
255000,2.224
260000,2.229
265000,2.227
270000,2.234
275000,2.258
280000,2.253
285000,2.236
290000,2.246
295000,2.263
300000,2.253
305000,2.236
310000,2.217
315000,2.197
320000,2.197
325000,2.188
330000,2.209
335000,2.17
340000,2.178
345000,2.202
350000,2.285
355000,2.334
360000,2.295
365000,2.275
370000,2.256
375000,2.246
380000,2.236
385000,2.239
390000,2.214
395000,2.207
400000,2.209
405000,2.217
410000,2.224
415000,2.236
420000,2.224
425000,2.227
430000,2.219
435000,2.217
440000,2.224
445000,2.224
450000,2.224
455000,2.227
460000,2.227
465000,2.246
470000,2.266
475000,2.283
480000,2.266
485000,2.246
490000,2.253
495000,2.246
500000,2.246
505000,2.251
510000,2.256
515000,2.251
520000,2.256
525000,2.253
530000,2.258
535000,2.263
540000,2.266
545000,2.244
550000,2.261
555000,2.246
560000,2.229
565000,2.224
570000,2.231
575000,2.253
580000,2.256
585000,2.273
590000,2.285
595000,2.283
600000,2.275
605000,2.239
610000,2.227
615000,2.195
620000,2.185
625000,2.214
630000,2.212
635000,2.224
640000,2.197
645000,2.168
650000,2.178
655000,2.166
660000,2.205
665000,2.239
670000,2.253
675000,2.256
680000,2.256
685000,2.266
690000,2.246
695000,2.256
700000,2.275
705000,2.283
710000,2.285
715000,2.292
720000,2.295
725000,2.295
730000,2.275
735000,2.285
740000,2.29
745000,2.302
750000,2.314
755000,2.314
760000,2.314
765000,2.324
770000,2.312
775000,2.305
780000,2.305
785000,2.307
790000,2.314
795000,2.275
800000,2.273
805000,2.292
810000,2.302
815000,2.3
820000,2.302
825000,2.305
830000,2.312
835000,2.334
840000,2.314
845000,2.305
850000,2.324
855000,2.334
860000,2.354
865000,2.339
870000,2.336
875000,2.351
880000,2.322
885000,2.324
890000,2.322
895000,2.332
900000,2.324
905000,2.305
910000,2.312
915000,2.344
920000,2.332
925000,2.344
930000,2.334
935000,2.346
940000,2.344
945000,2.356
950000,2.363
955000,2.366
960000,2.363
965000,2.385
970000,2.371
975000,2.383
980000,2.363
985000,2.363
990000,2.388
995000,2.405
1000000,2.383
1005000,2.383
1010000,2.361
1015000,2.383
1020000,2.383
1025000,2.383
1030000,2.351
1035000,2.305
1040000,2.334
1045000,2.336
1050000,2.305
1055000,2.332
1060000,2.305
1065000,2.332
1070000,2.383
1075000,2.402
1080000,2.393
1085000,2.39
1090000,2.393
1095000,2.38
1100000,2.361
1105000,2.366
1110000,2.305
1115000,2.295
1120000,2.307
1125000,2.295
1130000,2.307
1135000,2.324
1140000,2.363
1145000,2.351
1150000,2.363
1155000,2.378
1160000,2.393
1165000,2.4
1170000,2.383
1175000,2.393
1180000,2.422
1185000,2.451
1190000,2.441
1195000,2.429
1200000,2.429