#instrument=ARROW,
#ra=19.3847,
#dec=15.1214,
#alt=33.1917,
#az=250.65,
#tracking=true,
#startTime=1636056112,
#startTimeUTC=2021-11-04T20:01:52.600Z,
#user=cs9527,
#fullScan=true,
#completeTime=1636056212,
#completeTimeUTC=2021-11-04T20:03:32.938Z,
frequency, intensity
-800000,1.941
-795000,1.931
-790000,1.931
-785000,1.941
-780000,1.914
-775000,1.902
-770000,1.914
-765000,1.887
-760000,1.877
-755000,1.875
-750000,1.873
-745000,1.877
-740000,1.873
-735000,1.87
-730000,1.892
-725000,1.914
-720000,1.895
-715000,1.917
-710000,1.877
-705000,1.875
-700000,1.892
-695000,1.895
-690000,1.904
-685000,1.904
-680000,1.914
-675000,1.912
-670000,1.921
-665000,1.914
-660000,1.914
-655000,1.917
-650000,1.921
-645000,1.914
-640000,1.917
-635000,1.917
-630000,1.926
-625000,1.943
-620000,1.943
-615000,1.934
-610000,1.924
-605000,1.934
-600000,1.934
-595000,1.963
-590000,1.97
-585000,1.953
-580000,1.958
-575000,1.963
-570000,1.98
-565000,1.982
-560000,1.992
-555000,2.002
-550000,2.002
-545000,2.012
-540000,1.98
-535000,1.99
-530000,1.99
-525000,1.963
-520000,1.953
-515000,1.96
-510000,1.953
-505000,1.982
-500000,1.97
-495000,1.958
-490000,1.953
-485000,1.963
-480000,1.992
-475000,2.009
-470000,1.992
-465000,2.002
-460000,2.007
-455000,2.012
-450000,2.012
-445000,2.021
-440000,2.009
-435000,2.002
-430000,2.019
-425000,2.024
-420000,2.034
-415000,2.039
-410000,2.031
-405000,2.041
-400000,2.029
-395000,2.021
-390000,2.043
-385000,2.041
-380000,2.029
-375000,2.031
-370000,2.009
-365000,2.012
-360000,2.002
-355000,1.995
-350000,1.992
-345000,1.963
-340000,1.953
-335000,1.973
-330000,1.99
-325000,1.973
-320000,2.012
-315000,2.021
-310000,2.012
-305000,2.002
-300000,2.012
-295000,2.046
-290000,2.048
-285000,2.012
-280000,1.992
-275000,1.99
-270000,2.002
-265000,2.019
-260000,2.021
-255000,2.012
-250000,2.019
-245000,2.031
-240000,2.041
-235000,2.043
-230000,2.073
-225000,2.07
-220000,2.1
-215000,2.097
-210000,2.1
-205000,2.09
-200000,2.109
-195000,2.095
-190000,2.097
-185000,2.09
-180000,2.129
-175000,2.139
-170000,2.148
-165000,2.139
-160000,2.146
-155000,2.161
-150000,2.168
-145000,2.197
-140000,2.236
-135000,2.256
-130000,2.246
-125000,2.246
-120000,2.246
-115000,2.241
-110000,2.246
-105000,2.239
-100000,2.266
-95000,2.295
-90000,2.305
-85000,2.283
-80000,2.295
-75000,2.292
-70000,2.314
-65000,2.314
-60000,2.344
-55000,2.341
-50000,2.354
-45000,2.317
-40000,2.285
-35000,2.275
-30000,2.261
-25000,2.234
-20000,2.246
-15000,2.227
-10000,2.246
-5000,2.236
0,2.224
5000,2.214
10000,2.227
15000,2.197
20000,2.175
25000,2.158
30000,2.173
35000,2.158
40000,2.158
45000,2.168
50000,2.178
55000,2.188
60000,2.207
65000,2.224
70000,2.227
75000,2.229
80000,2.253
85000,2.256
90000,2.236
95000,2.234
100000,2.207
105000,2.205
110000,2.183
115000,2.168
120000,2.163
125000,2.148
130000,2.139
135000,2.119
140000,2.144
145000,2.158
150000,2.188
155000,2.185
160000,2.2
165000,2.212
170000,2.205
175000,2.214
180000,2.231
185000,2.217
190000,2.236
195000,2.246
200000,2.246
205000,2.227
210000,2.231
215000,2.239
220000,2.246
225000,2.236
230000,2.246
235000,2.212
240000,2.207
245000,2.207
250000,2.195
255000,2.188
260000,2.185
265000,2.197
270000,2.207
275000,2.197
280000,2.222
285000,2.217
290000,2.217
295000,2.227
300000,2.234
305000,2.224
310000,2.236
315000,2.246
320000,2.256
325000,2.244
330000,2.224
335000,2.236
340000,2.236
345000,2.234
350000,2.275
355000,2.297
360000,2.253
365000,2.236
370000,2.241
375000,2.224
380000,2.207
385000,2.207
390000,2.207
395000,2.217
400000,2.227
405000,2.249
410000,2.253
415000,2.251
420000,2.241
425000,2.256
430000,2.236
435000,2.227
440000,2.249
445000,2.231
450000,2.217
455000,2.205
460000,2.217
465000,2.185
470000,2.146
475000,2.144
480000,2.146
485000,2.168
490000,2.178
495000,2.188
500000,2.2
505000,2.173
510000,2.188
515000,2.212
520000,2.236
525000,2.224
530000,2.207
535000,2.212
540000,2.244
545000,2.263
550000,2.239
555000,2.253
560000,2.253
565000,2.236
570000,2.236
575000,2.236
580000,2.229
585000,2.236
590000,2.236
595000,2.249
600000,2.244
605000,2.236
610000,2.249
615000,2.263
620000,2.266
625000,2.256
630000,2.256
635000,2.246
640000,2.256
645000,2.263
650000,2.256
655000,2.246
660000,2.246
665000,2.263
670000,2.246
675000,2.256
680000,2.263
685000,2.256
690000,2.246
695000,2.268
700000,2.285
705000,2.258
710000,2.266
715000,2.285
720000,2.266
725000,2.285
730000,2.292
735000,2.278
740000,2.288
745000,2.283
750000,2.297
755000,2.29
760000,2.305
765000,2.295
770000,2.302
775000,2.292
780000,2.305
785000,2.305
790000,2.292
795000,2.302
800000,2.302
805000,2.319
810000,2.295
815000,2.283
820000,2.275
825000,2.246
830000,2.266
835000,2.278
840000,2.28
845000,2.29
850000,2.305
855000,2.295
860000,2.295
865000,2.273
870000,2.324
875000,2.314
880000,2.324
885000,2.324
890000,2.324
895000,2.312
900000,2.302
905000,2.29
910000,2.295
915000,2.312
920000,2.305
925000,2.324
930000,2.319
935000,2.324
940000,2.314
945000,2.327
950000,2.327
955000,2.341
960000,2.332
965000,2.314
970000,2.324
975000,2.305
980000,2.322
985000,2.324
990000,2.324
995000,2.351
1000000,2.344
1005000,2.334
1010000,2.324
1015000,2.324
1020000,2.344
1025000,2.332
1030000,2.334
1035000,2.344
1040000,2.339
1045000,2.363
1050000,2.363
1055000,2.363
1060000,2.368
1065000,2.354
1070000,2.329
1075000,2.341
1080000,2.354
1085000,2.351
1090000,2.361
1095000,2.4
1100000,2.419
1105000,2.383
1110000,2.38
1115000,2.373
1120000,2.354
1125000,2.383
1130000,2.383
1135000,2.368
1140000,2.378
1145000,2.346
1150000,2.354
1155000,2.39
1160000,2.4
1165000,2.393
1170000,2.397
1175000,2.402
1180000,2.397
1185000,2.397
1190000,2.412
1195000,2.412
1200000,2.39